# E (eV)   ldos(E)   pdos(E)   
  -6.070  0.176E-04  0.176E-04
  -6.055  0.649E-04  0.649E-04
  -6.040  0.218E-03  0.218E-03
  -6.025  0.666E-03  0.666E-03
  -6.010  0.185E-02  0.185E-02
  -5.995  0.469E-02  0.469E-02
  -5.980  0.108E-01  0.108E-01
  -5.965  0.228E-01  0.228E-01
  -5.950  0.437E-01  0.437E-01
  -5.935  0.767E-01  0.767E-01
  -5.920  0.123E+00  0.123E+00
  -5.905  0.182E+00  0.182E+00
  -5.890  0.246E+00  0.246E+00
  -5.875  0.308E+00  0.308E+00
  -5.860  0.358E+00  0.358E+00
  -5.845  0.388E+00  0.388E+00
  -5.830  0.396E+00  0.396E+00
  -5.815  0.384E+00  0.384E+00
  -5.800  0.360E+00  0.360E+00
  -5.785  0.328E+00  0.328E+00
  -5.770  0.297E+00  0.297E+00
  -5.755  0.268E+00  0.268E+00
  -5.740  0.244E+00  0.244E+00
  -5.725  0.225E+00  0.225E+00
  -5.710  0.209E+00  0.209E+00
  -5.695  0.196E+00  0.196E+00
  -5.680  0.186E+00  0.186E+00
  -5.665  0.177E+00  0.177E+00
  -5.650  0.169E+00  0.169E+00
  -5.635  0.162E+00  0.162E+00
  -5.620  0.155E+00  0.155E+00
  -5.605  0.150E+00  0.150E+00
  -5.590  0.145E+00  0.145E+00
  -5.575  0.140E+00  0.140E+00
  -5.560  0.136E+00  0.136E+00
  -5.545  0.131E+00  0.131E+00
  -5.530  0.128E+00  0.128E+00
  -5.515  0.124E+00  0.124E+00
  -5.500  0.121E+00  0.121E+00
  -5.485  0.118E+00  0.118E+00
  -5.470  0.115E+00  0.115E+00
  -5.455  0.113E+00  0.113E+00
  -5.440  0.110E+00  0.110E+00
  -5.425  0.108E+00  0.108E+00
  -5.410  0.106E+00  0.106E+00
  -5.395  0.104E+00  0.104E+00
  -5.380  0.102E+00  0.102E+00
  -5.365  0.996E-01  0.996E-01
  -5.350  0.973E-01  0.973E-01
  -5.335  0.953E-01  0.953E-01
  -5.320  0.939E-01  0.939E-01
  -5.305  0.929E-01  0.929E-01
  -5.290  0.920E-01  0.920E-01
  -5.275  0.905E-01  0.905E-01
  -5.260  0.884E-01  0.884E-01
  -5.245  0.862E-01  0.862E-01
  -5.230  0.845E-01  0.845E-01
  -5.215  0.837E-01  0.837E-01
  -5.200  0.835E-01  0.835E-01
  -5.185  0.833E-01  0.833E-01
  -5.170  0.823E-01  0.823E-01
  -5.155  0.805E-01  0.805E-01
  -5.140  0.784E-01  0.784E-01
  -5.125  0.765E-01  0.765E-01
  -5.110  0.755E-01  0.755E-01
  -5.095  0.754E-01  0.754E-01
  -5.080  0.757E-01  0.757E-01
  -5.065  0.757E-01  0.757E-01
  -5.050  0.750E-01  0.750E-01
  -5.035  0.736E-01  0.736E-01
  -5.020  0.718E-01  0.718E-01
  -5.005  0.700E-01  0.700E-01
  -4.990  0.686E-01  0.686E-01
  -4.975  0.679E-01  0.679E-01
  -4.960  0.681E-01  0.681E-01
  -4.945  0.690E-01  0.690E-01
  -4.930  0.698E-01  0.698E-01
  -4.915  0.698E-01  0.698E-01
  -4.900  0.684E-01  0.684E-01
  -4.885  0.658E-01  0.658E-01
  -4.870  0.629E-01  0.629E-01
  -4.855  0.611E-01  0.611E-01
  -4.840  0.611E-01  0.611E-01
  -4.825  0.627E-01  0.627E-01
  -4.810  0.648E-01  0.648E-01
  -4.795  0.663E-01  0.663E-01
  -4.780  0.660E-01  0.660E-01
  -4.765  0.640E-01  0.640E-01
  -4.750  0.608E-01  0.608E-01
  -4.735  0.579E-01  0.579E-01
  -4.720  0.562E-01  0.562E-01
  -4.705  0.563E-01  0.563E-01
  -4.690  0.580E-01  0.580E-01
  -4.675  0.603E-01  0.603E-01
  -4.660  0.619E-01  0.619E-01
  -4.645  0.621E-01  0.621E-01
  -4.630  0.607E-01  0.607E-01
  -4.615  0.585E-01  0.585E-01
  -4.600  0.562E-01  0.562E-01
  -4.585  0.547E-01  0.547E-01
  -4.570  0.540E-01  0.540E-01
  -4.555  0.540E-01  0.540E-01
  -4.540  0.542E-01  0.542E-01
  -4.525  0.548E-01  0.548E-01
  -4.510  0.558E-01  0.558E-01
  -4.495  0.572E-01  0.572E-01
  -4.480  0.583E-01  0.583E-01
  -4.465  0.586E-01  0.586E-01
  -4.450  0.573E-01  0.573E-01
  -4.435  0.547E-01  0.547E-01
  -4.420  0.514E-01  0.514E-01
  -4.405  0.487E-01  0.487E-01
  -4.390  0.478E-01  0.478E-01
  -4.375  0.489E-01  0.489E-01
  -4.360  0.518E-01  0.518E-01
  -4.345  0.552E-01  0.552E-01
  -4.330  0.580E-01  0.580E-01
  -4.315  0.590E-01  0.590E-01
  -4.300  0.578E-01  0.578E-01
  -4.285  0.546E-01  0.546E-01
  -4.270  0.505E-01  0.505E-01
  -4.255  0.468E-01  0.468E-01
  -4.240  0.448E-01  0.448E-01
  -4.225  0.454E-01  0.454E-01
  -4.210  0.481E-01  0.481E-01
  -4.195  0.519E-01  0.519E-01
  -4.180  0.553E-01  0.553E-01
  -4.165  0.570E-01  0.570E-01
  -4.150  0.566E-01  0.566E-01
  -4.135  0.545E-01  0.545E-01
  -4.120  0.519E-01  0.519E-01
  -4.105  0.498E-01  0.498E-01
  -4.090  0.485E-01  0.485E-01
  -4.075  0.480E-01  0.480E-01
  -4.060  0.479E-01  0.479E-01
  -4.045  0.481E-01  0.481E-01
  -4.030  0.485E-01  0.485E-01
  -4.015  0.495E-01  0.495E-01
  -4.000  0.510E-01  0.510E-01
  -3.985  0.529E-01  0.529E-01
  -3.970  0.548E-01  0.548E-01
  -3.955  0.561E-01  0.561E-01
  -3.940  0.564E-01  0.564E-01
  -3.925  0.554E-01  0.554E-01
  -3.910  0.532E-01  0.532E-01
  -3.895  0.502E-01  0.502E-01
  -3.880  0.471E-01  0.471E-01
  -3.865  0.451E-01  0.451E-01
  -3.850  0.453E-01  0.453E-01
  -3.835  0.479E-01  0.479E-01
  -3.820  0.524E-01  0.524E-01
  -3.805  0.576E-01  0.576E-01
  -3.790  0.619E-01  0.619E-01
  -3.775  0.640E-01  0.640E-01
  -3.760  0.634E-01  0.634E-01
  -3.745  0.607E-01  0.607E-01
  -3.730  0.571E-01  0.571E-01
  -3.715  0.542E-01  0.542E-01
  -3.700  0.531E-01  0.531E-01
  -3.685  0.549E-01  0.549E-01
  -3.670  0.597E-01  0.597E-01
  -3.655  0.679E-01  0.679E-01
  -3.640  0.802E-01  0.802E-01
  -3.625  0.980E-01  0.980E-01
  -3.610  0.123E+00  0.123E+00
  -3.595  0.158E+00  0.158E+00
  -3.580  0.202E+00  0.202E+00
  -3.565  0.253E+00  0.253E+00
  -3.550  0.304E+00  0.304E+00
  -3.535  0.348E+00  0.348E+00
  -3.520  0.378E+00  0.378E+00
  -3.505  0.389E+00  0.389E+00
  -3.490  0.381E+00  0.381E+00
  -3.475  0.360E+00  0.360E+00
  -3.460  0.331E+00  0.331E+00
  -3.445  0.300E+00  0.300E+00
  -3.430  0.274E+00  0.274E+00
  -3.415  0.253E+00  0.253E+00
  -3.400  0.238E+00  0.238E+00
  -3.385  0.226E+00  0.226E+00
  -3.370  0.217E+00  0.217E+00
  -3.355  0.207E+00  0.207E+00
  -3.340  0.196E+00  0.196E+00
  -3.325  0.184E+00  0.184E+00
  -3.310  0.173E+00  0.173E+00
  -3.295  0.164E+00  0.164E+00
  -3.280  0.156E+00  0.156E+00
  -3.265  0.152E+00  0.152E+00
  -3.250  0.150E+00  0.150E+00
  -3.235  0.149E+00  0.149E+00
  -3.220  0.149E+00  0.149E+00
  -3.205  0.149E+00  0.149E+00
  -3.190  0.147E+00  0.147E+00
  -3.175  0.145E+00  0.145E+00
  -3.160  0.142E+00  0.142E+00
  -3.145  0.138E+00  0.138E+00
  -3.130  0.135E+00  0.135E+00
  -3.115  0.131E+00  0.131E+00
  -3.100  0.129E+00  0.129E+00
  -3.085  0.125E+00  0.125E+00
  -3.070  0.122E+00  0.122E+00
  -3.055  0.118E+00  0.118E+00
  -3.040  0.115E+00  0.115E+00
  -3.025  0.112E+00  0.112E+00
  -3.010  0.112E+00  0.112E+00
  -2.995  0.113E+00  0.113E+00
  -2.980  0.115E+00  0.115E+00
  -2.965  0.118E+00  0.118E+00
  -2.950  0.120E+00  0.120E+00
  -2.935  0.120E+00  0.120E+00
  -2.920  0.118E+00  0.118E+00
  -2.905  0.115E+00  0.115E+00
  -2.890  0.110E+00  0.110E+00
  -2.875  0.105E+00  0.105E+00
  -2.860  0.101E+00  0.101E+00
  -2.845  0.980E-01  0.980E-01
  -2.830  0.971E-01  0.971E-01
  -2.815  0.977E-01  0.977E-01
  -2.800  0.992E-01  0.992E-01
  -2.785  0.101E+00  0.101E+00
  -2.770  0.102E+00  0.102E+00
  -2.755  0.102E+00  0.102E+00
  -2.740  0.102E+00  0.102E+00
  -2.725  0.103E+00  0.103E+00
  -2.710  0.103E+00  0.103E+00
  -2.695  0.104E+00  0.104E+00
  -2.680  0.104E+00  0.104E+00
  -2.665  0.102E+00  0.102E+00
  -2.650  0.998E-01  0.998E-01
  -2.635  0.961E-01  0.961E-01
  -2.620  0.922E-01  0.922E-01
  -2.605  0.888E-01  0.888E-01
  -2.590  0.868E-01  0.868E-01
  -2.575  0.867E-01  0.867E-01
  -2.560  0.885E-01  0.885E-01
  -2.545  0.916E-01  0.916E-01
  -2.530  0.953E-01  0.953E-01
  -2.515  0.988E-01  0.988E-01
  -2.500  0.102E+00  0.102E+00
  -2.485  0.104E+00  0.104E+00
  -2.470  0.106E+00  0.106E+00
  -2.455  0.108E+00  0.108E+00
  -2.440  0.114E+00  0.114E+00
  -2.425  0.124E+00  0.124E+00
  -2.410  0.141E+00  0.141E+00
  -2.395  0.165E+00  0.165E+00
  -2.380  0.194E+00  0.194E+00
  -2.365  0.224E+00  0.224E+00
  -2.350  0.250E+00  0.250E+00
  -2.335  0.269E+00  0.269E+00
  -2.320  0.278E+00  0.278E+00
  -2.305  0.278E+00  0.278E+00
  -2.290  0.274E+00  0.274E+00
  -2.275  0.268E+00  0.268E+00
  -2.260  0.264E+00  0.264E+00
  -2.245  0.263E+00  0.263E+00
  -2.230  0.267E+00  0.267E+00
  -2.215  0.275E+00  0.275E+00
  -2.200  0.287E+00  0.287E+00
  -2.185  0.303E+00  0.303E+00
  -2.170  0.323E+00  0.323E+00
  -2.155  0.342E+00  0.342E+00
  -2.140  0.359E+00  0.359E+00
  -2.125  0.368E+00  0.368E+00
  -2.110  0.368E+00  0.368E+00
  -2.095  0.358E+00  0.358E+00
  -2.080  0.341E+00  0.341E+00
  -2.065  0.320E+00  0.320E+00
  -2.050  0.299E+00  0.299E+00
  -2.035  0.280E+00  0.280E+00
  -2.020  0.264E+00  0.264E+00
  -2.005  0.252E+00  0.252E+00
  -1.990  0.241E+00  0.241E+00
  -1.975  0.234E+00  0.234E+00
  -1.960  0.228E+00  0.228E+00
  -1.945  0.224E+00  0.224E+00
  -1.930  0.222E+00  0.222E+00
  -1.915  0.222E+00  0.222E+00
  -1.900  0.224E+00  0.224E+00
  -1.885  0.227E+00  0.227E+00
  -1.870  0.233E+00  0.233E+00
  -1.855  0.243E+00  0.243E+00
  -1.840  0.262E+00  0.262E+00
  -1.825  0.295E+00  0.295E+00
  -1.810  0.347E+00  0.347E+00
  -1.795  0.424E+00  0.424E+00
  -1.780  0.526E+00  0.526E+00
  -1.765  0.646E+00  0.646E+00
  -1.750  0.771E+00  0.771E+00
  -1.735  0.883E+00  0.883E+00
  -1.720  0.964E+00  0.964E+00
  -1.705  0.100E+01  0.100E+01
  -1.690  0.101E+01  0.101E+01
  -1.675  0.980E+00  0.980E+00
  -1.660  0.940E+00  0.940E+00
  -1.645  0.899E+00  0.899E+00
  -1.630  0.866E+00  0.866E+00
  -1.615  0.839E+00  0.839E+00
  -1.600  0.811E+00  0.811E+00
  -1.585  0.771E+00  0.771E+00
  -1.570  0.713E+00  0.713E+00
  -1.555  0.634E+00  0.634E+00
  -1.540  0.541E+00  0.541E+00
  -1.525  0.445E+00  0.445E+00
  -1.510  0.358E+00  0.358E+00
  -1.495  0.287E+00  0.287E+00
  -1.480  0.236E+00  0.236E+00
  -1.465  0.203E+00  0.203E+00
  -1.450  0.184E+00  0.184E+00
  -1.435  0.174E+00  0.174E+00
  -1.420  0.170E+00  0.170E+00
  -1.405  0.167E+00  0.167E+00
  -1.390  0.166E+00  0.166E+00
  -1.375  0.165E+00  0.165E+00
  -1.360  0.165E+00  0.165E+00
  -1.345  0.166E+00  0.166E+00
  -1.330  0.169E+00  0.169E+00
  -1.315  0.175E+00  0.175E+00
  -1.300  0.184E+00  0.184E+00
  -1.285  0.196E+00  0.196E+00
  -1.270  0.212E+00  0.212E+00
  -1.255  0.232E+00  0.232E+00
  -1.240  0.256E+00  0.256E+00
  -1.225  0.283E+00  0.283E+00
  -1.210  0.313E+00  0.313E+00
  -1.195  0.342E+00  0.342E+00
  -1.180  0.367E+00  0.367E+00
  -1.165  0.382E+00  0.382E+00
  -1.150  0.383E+00  0.383E+00
  -1.135  0.369E+00  0.369E+00
  -1.120  0.342E+00  0.342E+00
  -1.105  0.307E+00  0.307E+00
  -1.090  0.270E+00  0.270E+00
  -1.075  0.236E+00  0.236E+00
  -1.060  0.211E+00  0.211E+00
  -1.045  0.194E+00  0.194E+00
  -1.030  0.185E+00  0.185E+00
  -1.015  0.185E+00  0.185E+00
  -1.000  0.192E+00  0.192E+00
  -0.985  0.205E+00  0.205E+00
  -0.970  0.225E+00  0.225E+00
  -0.955  0.252E+00  0.252E+00
  -0.940  0.282E+00  0.282E+00
  -0.925  0.314E+00  0.314E+00
  -0.910  0.343E+00  0.343E+00
  -0.895  0.363E+00  0.363E+00
  -0.880  0.371E+00  0.371E+00
  -0.865  0.368E+00  0.368E+00
  -0.850  0.355E+00  0.355E+00
  -0.835  0.338E+00  0.338E+00
  -0.820  0.322E+00  0.322E+00
  -0.805  0.312E+00  0.312E+00
  -0.790  0.309E+00  0.309E+00
  -0.775  0.312E+00  0.312E+00
  -0.760  0.317E+00  0.317E+00
  -0.745  0.317E+00  0.317E+00
  -0.730  0.308E+00  0.308E+00
  -0.715  0.286E+00  0.286E+00
  -0.700  0.253E+00  0.253E+00
  -0.685  0.211E+00  0.211E+00
  -0.670  0.167E+00  0.167E+00
  -0.655  0.127E+00  0.127E+00
  -0.640  0.932E-01  0.932E-01
  -0.625  0.676E-01  0.676E-01
  -0.610  0.493E-01  0.493E-01
  -0.595  0.366E-01  0.366E-01
  -0.580  0.280E-01  0.280E-01
  -0.565  0.225E-01  0.225E-01
  -0.550  0.195E-01  0.195E-01
  -0.535  0.186E-01  0.186E-01
  -0.520  0.192E-01  0.192E-01
  -0.505  0.202E-01  0.202E-01
  -0.490  0.211E-01  0.211E-01
  -0.475  0.213E-01  0.213E-01
  -0.460  0.210E-01  0.210E-01
  -0.445  0.210E-01  0.210E-01
  -0.430  0.220E-01  0.220E-01
  -0.415  0.243E-01  0.243E-01
  -0.400  0.276E-01  0.276E-01
  -0.385  0.308E-01  0.308E-01
  -0.370  0.328E-01  0.328E-01
  -0.355  0.327E-01  0.327E-01
  -0.340  0.303E-01  0.303E-01
  -0.325  0.262E-01  0.262E-01
  -0.310  0.217E-01  0.217E-01
  -0.295  0.181E-01  0.181E-01
  -0.280  0.161E-01  0.161E-01
  -0.265  0.158E-01  0.158E-01
  -0.250  0.168E-01  0.168E-01
  -0.235  0.183E-01  0.183E-01
  -0.220  0.193E-01  0.193E-01
  -0.205  0.195E-01  0.195E-01
  -0.190  0.189E-01  0.189E-01
  -0.175  0.182E-01  0.182E-01
  -0.160  0.182E-01  0.182E-01
  -0.145  0.194E-01  0.194E-01
  -0.130  0.220E-01  0.220E-01
  -0.115  0.254E-01  0.254E-01
  -0.100  0.286E-01  0.286E-01
  -0.085  0.305E-01  0.305E-01
  -0.070  0.305E-01  0.305E-01
  -0.055  0.284E-01  0.284E-01
  -0.040  0.249E-01  0.249E-01
  -0.025  0.209E-01  0.209E-01
  -0.010  0.173E-01  0.173E-01
   0.005  0.149E-01  0.149E-01
   0.020  0.139E-01  0.139E-01
   0.035  0.140E-01  0.140E-01
   0.050  0.148E-01  0.148E-01
   0.065  0.158E-01  0.158E-01
   0.080  0.167E-01  0.167E-01
   0.095  0.172E-01  0.172E-01
   0.110  0.178E-01  0.178E-01
   0.125  0.185E-01  0.185E-01
   0.140  0.199E-01  0.199E-01
   0.155  0.218E-01  0.218E-01
   0.170  0.240E-01  0.240E-01
   0.185  0.260E-01  0.260E-01
   0.200  0.272E-01  0.272E-01
   0.215  0.269E-01  0.269E-01
   0.230  0.253E-01  0.253E-01
   0.245  0.228E-01  0.228E-01
   0.260  0.199E-01  0.199E-01
   0.275  0.173E-01  0.173E-01
   0.290  0.155E-01  0.155E-01
   0.305  0.145E-01  0.145E-01
   0.320  0.142E-01  0.142E-01
   0.335  0.143E-01  0.143E-01
   0.350  0.146E-01  0.146E-01
   0.365  0.149E-01  0.149E-01
   0.380  0.151E-01  0.151E-01
   0.395  0.152E-01  0.152E-01
   0.410  0.156E-01  0.156E-01
   0.425  0.167E-01  0.167E-01
   0.440  0.186E-01  0.186E-01
   0.455  0.212E-01  0.212E-01
   0.470  0.241E-01  0.241E-01
   0.485  0.263E-01  0.263E-01
   0.500  0.274E-01  0.274E-01
   0.515  0.269E-01  0.269E-01
   0.530  0.250E-01  0.250E-01
   0.545  0.219E-01  0.219E-01
   0.560  0.183E-01  0.183E-01
   0.575  0.148E-01  0.148E-01
   0.590  0.117E-01  0.117E-01
   0.605  0.977E-02  0.977E-02
   0.620  0.908E-02  0.908E-02
   0.635  0.973E-02  0.973E-02
   0.650  0.115E-01  0.115E-01
   0.665  0.139E-01  0.139E-01
   0.680  0.166E-01  0.166E-01
   0.695  0.190E-01  0.190E-01
   0.710  0.208E-01  0.208E-01
   0.725  0.220E-01  0.220E-01
   0.740  0.224E-01  0.224E-01
   0.755  0.222E-01  0.222E-01
   0.770  0.214E-01  0.214E-01
   0.785  0.202E-01  0.202E-01
   0.800  0.188E-01  0.188E-01
   0.815  0.178E-01  0.178E-01
   0.830  0.174E-01  0.174E-01
   0.845  0.176E-01  0.176E-01
   0.860  0.183E-01  0.183E-01
   0.875  0.189E-01  0.189E-01
   0.890  0.187E-01  0.187E-01
   0.905  0.175E-01  0.175E-01
   0.920  0.153E-01  0.153E-01
   0.935  0.124E-01  0.124E-01
   0.950  0.961E-02  0.961E-02
   0.965  0.762E-02  0.762E-02
   0.980  0.706E-02  0.706E-02
   0.995  0.830E-02  0.830E-02
   1.010  0.114E-01  0.114E-01
   1.025  0.161E-01  0.161E-01
   1.040  0.216E-01  0.216E-01
   1.055  0.266E-01  0.266E-01
   1.070  0.299E-01  0.299E-01
   1.085  0.305E-01  0.305E-01
   1.100  0.283E-01  0.283E-01
   1.115  0.239E-01  0.239E-01
   1.130  0.184E-01  0.184E-01
   1.145  0.131E-01  0.131E-01
   1.160  0.881E-02  0.881E-02
   1.175  0.621E-02  0.621E-02
   1.190  0.541E-02  0.541E-02
   1.205  0.630E-02  0.630E-02
   1.220  0.855E-02  0.855E-02
   1.235  0.117E-01  0.117E-01
   1.250  0.150E-01  0.150E-01
   1.265  0.178E-01  0.178E-01
   1.280  0.196E-01  0.196E-01
   1.295  0.202E-01  0.202E-01
   1.310  0.199E-01  0.199E-01
   1.325  0.191E-01  0.191E-01
   1.340  0.182E-01  0.182E-01
   1.355  0.175E-01  0.175E-01
   1.370  0.167E-01  0.167E-01
   1.385  0.161E-01  0.161E-01
   1.400  0.156E-01  0.156E-01
   1.415  0.155E-01  0.155E-01
   1.430  0.159E-01  0.159E-01
   1.445  0.168E-01  0.168E-01
   1.460  0.178E-01  0.178E-01
   1.475  0.183E-01  0.183E-01
   1.490  0.178E-01  0.178E-01
   1.505  0.160E-01  0.160E-01
   1.520  0.134E-01  0.134E-01
   1.535  0.104E-01  0.104E-01
   1.550  0.788E-02  0.788E-02
   1.565  0.632E-02  0.632E-02
   1.580  0.624E-02  0.624E-02
   1.595  0.788E-02  0.788E-02
   1.610  0.112E-01  0.112E-01
   1.625  0.159E-01  0.159E-01
   1.640  0.212E-01  0.212E-01
   1.655  0.261E-01  0.261E-01
   1.670  0.297E-01  0.297E-01
   1.685  0.311E-01  0.311E-01
   1.700  0.302E-01  0.302E-01
   1.715  0.275E-01  0.275E-01
   1.730  0.236E-01  0.236E-01
   1.745  0.195E-01  0.195E-01
   1.760  0.159E-01  0.159E-01
   1.775  0.134E-01  0.134E-01
   1.790  0.122E-01  0.122E-01
   1.805  0.123E-01  0.123E-01
   1.820  0.137E-01  0.137E-01
   1.835  0.161E-01  0.161E-01
   1.850  0.193E-01  0.193E-01
   1.865  0.230E-01  0.230E-01
   1.880  0.268E-01  0.268E-01
   1.895  0.303E-01  0.303E-01
   1.910  0.330E-01  0.330E-01
   1.925  0.346E-01  0.346E-01
   1.940  0.349E-01  0.349E-01
   1.955  0.338E-01  0.338E-01
   1.970  0.313E-01  0.313E-01
   1.985  0.280E-01  0.280E-01
   2.000  0.244E-01  0.244E-01
   2.015  0.213E-01  0.213E-01
   2.030  0.194E-01  0.194E-01
   2.045  0.187E-01  0.187E-01
   2.060  0.191E-01  0.191E-01
   2.075  0.202E-01  0.202E-01
   2.090  0.215E-01  0.215E-01
   2.105  0.225E-01  0.225E-01
   2.120  0.230E-01  0.230E-01
   2.135  0.227E-01  0.227E-01
   2.150  0.220E-01  0.220E-01
   2.165  0.209E-01  0.209E-01
   2.180  0.198E-01  0.198E-01
   2.195  0.193E-01  0.193E-01
   2.210  0.197E-01  0.197E-01
   2.225  0.212E-01  0.212E-01
   2.240  0.236E-01  0.236E-01
   2.255  0.263E-01  0.263E-01
   2.270  0.286E-01  0.286E-01
   2.285  0.299E-01  0.299E-01
   2.300  0.300E-01  0.300E-01
   2.315  0.291E-01  0.291E-01
   2.330  0.276E-01  0.276E-01
   2.345  0.260E-01  0.260E-01
   2.360  0.247E-01  0.247E-01
   2.375  0.237E-01  0.237E-01
   2.390  0.228E-01  0.228E-01
   2.405  0.216E-01  0.216E-01
   2.420  0.200E-01  0.200E-01
   2.435  0.183E-01  0.183E-01
   2.450  0.168E-01  0.168E-01
   2.465  0.162E-01  0.162E-01
   2.480  0.171E-01  0.171E-01
   2.495  0.196E-01  0.196E-01
   2.510  0.235E-01  0.235E-01
   2.525  0.281E-01  0.281E-01
   2.540  0.325E-01  0.325E-01
   2.555  0.356E-01  0.356E-01
   2.570  0.367E-01  0.367E-01
   2.585  0.358E-01  0.358E-01
   2.600  0.332E-01  0.332E-01
   2.615  0.295E-01  0.295E-01
   2.630  0.256E-01  0.256E-01
   2.645  0.221E-01  0.221E-01
   2.660  0.195E-01  0.195E-01
   2.675  0.180E-01  0.180E-01
   2.690  0.174E-01  0.174E-01
   2.705  0.175E-01  0.175E-01
   2.720  0.182E-01  0.182E-01
   2.735  0.191E-01  0.191E-01
   2.750  0.202E-01  0.202E-01
   2.765  0.217E-01  0.217E-01
   2.780  0.236E-01  0.236E-01
   2.795  0.261E-01  0.261E-01
   2.810  0.290E-01  0.290E-01
   2.825  0.318E-01  0.318E-01
   2.840  0.338E-01  0.338E-01
   2.855  0.344E-01  0.344E-01
   2.870  0.331E-01  0.331E-01
   2.885  0.301E-01  0.301E-01
   2.900  0.261E-01  0.261E-01
   2.915  0.221E-01  0.221E-01
   2.930  0.190E-01  0.190E-01
   2.945  0.175E-01  0.175E-01
   2.960  0.176E-01  0.176E-01
   2.975  0.189E-01  0.189E-01
   2.990  0.209E-01  0.209E-01
   3.005  0.227E-01  0.227E-01
   3.020  0.240E-01  0.240E-01
   3.035  0.246E-01  0.246E-01
   3.050  0.245E-01  0.245E-01
   3.065  0.241E-01  0.241E-01
   3.080  0.237E-01  0.237E-01
   3.095  0.236E-01  0.236E-01
   3.110  0.239E-01  0.239E-01
   3.125  0.246E-01  0.246E-01
   3.140  0.255E-01  0.255E-01
   3.155  0.264E-01  0.264E-01
   3.170  0.268E-01  0.268E-01
   3.185  0.266E-01  0.266E-01
   3.200  0.258E-01  0.258E-01
   3.215  0.245E-01  0.245E-01
   3.230  0.229E-01  0.229E-01
   3.245  0.213E-01  0.213E-01
   3.260  0.200E-01  0.200E-01
   3.275  0.189E-01  0.189E-01
   3.290  0.182E-01  0.182E-01
   3.305  0.178E-01  0.178E-01
   3.320  0.176E-01  0.176E-01
   3.335  0.177E-01  0.177E-01
   3.350  0.178E-01  0.178E-01
   3.365  0.181E-01  0.181E-01
   3.380  0.185E-01  0.185E-01
   3.395  0.192E-01  0.192E-01
   3.410  0.203E-01  0.203E-01
   3.425  0.219E-01  0.219E-01
   3.440  0.236E-01  0.236E-01
   3.455  0.252E-01  0.252E-01
   3.470  0.263E-01  0.263E-01
   3.485  0.266E-01  0.266E-01
   3.500  0.260E-01  0.260E-01
   3.515  0.247E-01  0.247E-01
   3.530  0.227E-01  0.227E-01
   3.545  0.202E-01  0.202E-01
   3.560  0.175E-01  0.175E-01
   3.575  0.148E-01  0.148E-01
