# E (eV)   ldos(E)   pdos(E)   
 -10.638  0.108E-04  0.108E-04
 -10.623  0.151E-04  0.151E-04
 -10.608  0.209E-04  0.209E-04
 -10.593  0.289E-04  0.289E-04
 -10.578  0.396E-04  0.396E-04
 -10.563  0.539E-04  0.539E-04
 -10.548  0.730E-04  0.730E-04
 -10.533  0.982E-04  0.982E-04
 -10.518  0.131E-03  0.131E-03
 -10.503  0.175E-03  0.175E-03
 -10.488  0.231E-03  0.231E-03
 -10.473  0.303E-03  0.303E-03
 -10.458  0.396E-03  0.396E-03
 -10.443  0.514E-03  0.514E-03
 -10.428  0.664E-03  0.664E-03
 -10.413  0.851E-03  0.851E-03
 -10.398  0.109E-02  0.109E-02
 -10.383  0.138E-02  0.138E-02
 -10.368  0.173E-02  0.173E-02
 -10.353  0.217E-02  0.217E-02
 -10.338  0.270E-02  0.270E-02
 -10.323  0.335E-02  0.335E-02
 -10.308  0.412E-02  0.412E-02
 -10.293  0.503E-02  0.503E-02
 -10.278  0.612E-02  0.612E-02
 -10.263  0.739E-02  0.739E-02
 -10.248  0.888E-02  0.888E-02
 -10.233  0.106E-01  0.106E-01
 -10.218  0.126E-01  0.126E-01
 -10.203  0.149E-01  0.149E-01
 -10.188  0.174E-01  0.174E-01
 -10.173  0.203E-01  0.203E-01
 -10.158  0.236E-01  0.236E-01
 -10.143  0.271E-01  0.271E-01
 -10.128  0.311E-01  0.311E-01
 -10.113  0.354E-01  0.354E-01
 -10.098  0.401E-01  0.401E-01
 -10.083  0.452E-01  0.452E-01
 -10.068  0.506E-01  0.506E-01
 -10.053  0.563E-01  0.563E-01
 -10.038  0.622E-01  0.622E-01
 -10.023  0.685E-01  0.685E-01
 -10.008  0.749E-01  0.749E-01
  -9.993  0.814E-01  0.814E-01
  -9.978  0.880E-01  0.880E-01
  -9.963  0.947E-01  0.947E-01
  -9.948  0.101E+00  0.101E+00
  -9.933  0.108E+00  0.108E+00
  -9.918  0.114E+00  0.114E+00
  -9.903  0.120E+00  0.120E+00
  -9.888  0.125E+00  0.125E+00
  -9.873  0.130E+00  0.130E+00
  -9.858  0.134E+00  0.134E+00
  -9.843  0.138E+00  0.138E+00
  -9.828  0.141E+00  0.141E+00
  -9.813  0.144E+00  0.144E+00
  -9.798  0.146E+00  0.146E+00
  -9.783  0.147E+00  0.147E+00
  -9.768  0.147E+00  0.147E+00
  -9.753  0.147E+00  0.147E+00
  -9.738  0.146E+00  0.146E+00
  -9.723  0.144E+00  0.144E+00
  -9.708  0.141E+00  0.141E+00
  -9.693  0.138E+00  0.138E+00
  -9.678  0.135E+00  0.135E+00
  -9.663  0.131E+00  0.131E+00
  -9.648  0.126E+00  0.126E+00
  -9.633  0.121E+00  0.121E+00
  -9.618  0.116E+00  0.116E+00
  -9.603  0.111E+00  0.111E+00
  -9.588  0.105E+00  0.105E+00
  -9.573  0.997E-01  0.997E-01
  -9.558  0.941E-01  0.941E-01
  -9.543  0.884E-01  0.884E-01
  -9.528  0.829E-01  0.829E-01
  -9.513  0.774E-01  0.774E-01
  -9.498  0.721E-01  0.721E-01
  -9.483  0.670E-01  0.670E-01
  -9.468  0.620E-01  0.620E-01
  -9.453  0.572E-01  0.572E-01
  -9.438  0.527E-01  0.527E-01
  -9.423  0.484E-01  0.484E-01
  -9.408  0.443E-01  0.443E-01
  -9.393  0.405E-01  0.405E-01
  -9.378  0.368E-01  0.368E-01
  -9.363  0.335E-01  0.335E-01
  -9.348  0.303E-01  0.303E-01
  -9.333  0.274E-01  0.274E-01
  -9.318  0.246E-01  0.246E-01
  -9.303  0.221E-01  0.221E-01
  -9.288  0.198E-01  0.198E-01
  -9.273  0.177E-01  0.177E-01
  -9.258  0.157E-01  0.157E-01
  -9.243  0.139E-01  0.139E-01
  -9.228  0.123E-01  0.123E-01
  -9.213  0.108E-01  0.108E-01
  -9.198  0.947E-02  0.947E-02
  -9.183  0.827E-02  0.827E-02
  -9.168  0.719E-02  0.719E-02
  -9.153  0.622E-02  0.622E-02
  -9.138  0.537E-02  0.537E-02
  -9.123  0.461E-02  0.461E-02
  -9.108  0.394E-02  0.394E-02
  -9.093  0.335E-02  0.335E-02
  -9.078  0.284E-02  0.284E-02
  -9.063  0.240E-02  0.240E-02
  -9.048  0.201E-02  0.201E-02
  -9.033  0.168E-02  0.168E-02
  -9.018  0.140E-02  0.140E-02
  -9.003  0.116E-02  0.116E-02
  -8.988  0.953E-03  0.953E-03
  -8.973  0.780E-03  0.780E-03
  -8.958  0.636E-03  0.636E-03
  -8.943  0.516E-03  0.516E-03
  -8.928  0.417E-03  0.417E-03
  -8.913  0.335E-03  0.335E-03
  -8.898  0.267E-03  0.267E-03
  -8.883  0.212E-03  0.212E-03
  -8.868  0.168E-03  0.168E-03
  -8.853  0.132E-03  0.132E-03
  -8.838  0.103E-03  0.103E-03
  -8.823  0.806E-04  0.806E-04
  -8.808  0.624E-04  0.624E-04
  -8.793  0.481E-04  0.481E-04
  -8.778  0.369E-04  0.369E-04
  -8.763  0.281E-04  0.281E-04
  -8.748  0.213E-04  0.213E-04
  -8.733  0.161E-04  0.161E-04
  -8.718  0.121E-04  0.121E-04
  -8.703  0.903E-05  0.903E-05
  -8.688  0.671E-05  0.671E-05
  -8.673  0.496E-05  0.496E-05
  -8.658  0.365E-05  0.365E-05
  -8.643  0.267E-05  0.267E-05
  -8.628  0.194E-05  0.194E-05
  -8.613  0.141E-05  0.141E-05
  -8.598  0.101E-05  0.101E-05
  -8.583  0.725E-06  0.725E-06
  -8.568  0.517E-06  0.517E-06
  -8.553  0.366E-06  0.366E-06
  -8.538  0.258E-06  0.258E-06
  -8.523  0.181E-06  0.181E-06
  -8.508  0.127E-06  0.127E-06
  -8.493  0.879E-07  0.879E-07
  -8.478  0.607E-07  0.607E-07
  -8.463  0.418E-07  0.418E-07
  -8.448  0.287E-07  0.287E-07
  -8.433  0.196E-07  0.196E-07
  -8.418  0.135E-07  0.135E-07
  -8.403  0.948E-08  0.948E-08
  -8.388  0.692E-08  0.692E-08
  -8.373  0.548E-08  0.548E-08
  -8.358  0.494E-08  0.494E-08
  -8.343  0.521E-08  0.521E-08
  -8.328  0.633E-08  0.633E-08
  -8.313  0.845E-08  0.845E-08
  -8.298  0.118E-07  0.118E-07
  -8.283  0.169E-07  0.169E-07
  -8.268  0.243E-07  0.243E-07
  -8.253  0.350E-07  0.350E-07
  -8.238  0.503E-07  0.503E-07
  -8.223  0.718E-07  0.718E-07
  -8.208  0.102E-06  0.102E-06
  -8.193  0.144E-06  0.144E-06
  -8.178  0.202E-06  0.202E-06
  -8.163  0.282E-06  0.282E-06
  -8.148  0.391E-06  0.391E-06
  -8.133  0.539E-06  0.539E-06
  -8.118  0.740E-06  0.740E-06
  -8.103  0.101E-05  0.101E-05
  -8.088  0.137E-05  0.137E-05
  -8.073  0.184E-05  0.184E-05
  -8.058  0.247E-05  0.247E-05
  -8.043  0.329E-05  0.329E-05
  -8.028  0.436E-05  0.436E-05
  -8.013  0.574E-05  0.574E-05
  -7.998  0.751E-05  0.751E-05
  -7.983  0.978E-05  0.978E-05
  -7.968  0.127E-04  0.127E-04
  -7.953  0.163E-04  0.163E-04
  -7.938  0.209E-04  0.209E-04
  -7.923  0.265E-04  0.265E-04
  -7.908  0.336E-04  0.336E-04
  -7.893  0.423E-04  0.423E-04
  -7.878  0.529E-04  0.529E-04
  -7.863  0.658E-04  0.658E-04
  -7.848  0.814E-04  0.814E-04
  -7.833  0.100E-03  0.100E-03
  -7.818  0.123E-03  0.123E-03
  -7.803  0.149E-03  0.149E-03
  -7.788  0.180E-03  0.180E-03
  -7.773  0.217E-03  0.217E-03
  -7.758  0.260E-03  0.260E-03
  -7.743  0.309E-03  0.309E-03
  -7.728  0.366E-03  0.366E-03
  -7.713  0.431E-03  0.431E-03
  -7.698  0.505E-03  0.505E-03
  -7.683  0.589E-03  0.589E-03
  -7.668  0.682E-03  0.682E-03
  -7.653  0.787E-03  0.787E-03
  -7.638  0.902E-03  0.902E-03
  -7.623  0.103E-02  0.103E-02
  -7.608  0.117E-02  0.117E-02
  -7.593  0.132E-02  0.132E-02
  -7.578  0.148E-02  0.148E-02
  -7.563  0.166E-02  0.166E-02
  -7.548  0.185E-02  0.185E-02
  -7.533  0.204E-02  0.204E-02
  -7.518  0.225E-02  0.225E-02
  -7.503  0.247E-02  0.247E-02
  -7.488  0.270E-02  0.270E-02
  -7.473  0.293E-02  0.293E-02
  -7.458  0.317E-02  0.317E-02
  -7.443  0.341E-02  0.341E-02
  -7.428  0.366E-02  0.366E-02
  -7.413  0.390E-02  0.390E-02
  -7.398  0.415E-02  0.415E-02
  -7.383  0.439E-02  0.439E-02
  -7.368  0.463E-02  0.463E-02
  -7.353  0.486E-02  0.486E-02
  -7.338  0.508E-02  0.508E-02
  -7.323  0.530E-02  0.530E-02
  -7.308  0.550E-02  0.550E-02
  -7.293  0.569E-02  0.569E-02
  -7.278  0.586E-02  0.586E-02
  -7.263  0.602E-02  0.602E-02
  -7.248  0.616E-02  0.616E-02
  -7.233  0.629E-02  0.629E-02
  -7.218  0.641E-02  0.641E-02
  -7.203  0.650E-02  0.650E-02
  -7.188  0.658E-02  0.658E-02
  -7.173  0.665E-02  0.665E-02
  -7.158  0.670E-02  0.670E-02
  -7.143  0.674E-02  0.674E-02
  -7.128  0.676E-02  0.676E-02
  -7.113  0.677E-02  0.677E-02
  -7.098  0.677E-02  0.677E-02
  -7.083  0.676E-02  0.676E-02
  -7.068  0.675E-02  0.675E-02
  -7.053  0.672E-02  0.672E-02
  -7.038  0.669E-02  0.669E-02
  -7.023  0.666E-02  0.666E-02
  -7.008  0.662E-02  0.662E-02
  -6.993  0.659E-02  0.659E-02
  -6.978  0.655E-02  0.655E-02
  -6.963  0.651E-02  0.651E-02
  -6.948  0.647E-02  0.647E-02
  -6.933  0.644E-02  0.644E-02
  -6.918  0.641E-02  0.641E-02
  -6.903  0.639E-02  0.639E-02
  -6.888  0.637E-02  0.637E-02
  -6.873  0.636E-02  0.636E-02
  -6.858  0.636E-02  0.636E-02
  -6.843  0.636E-02  0.636E-02
  -6.828  0.637E-02  0.637E-02
  -6.813  0.639E-02  0.639E-02
  -6.798  0.641E-02  0.641E-02
  -6.783  0.644E-02  0.644E-02
  -6.768  0.648E-02  0.648E-02
  -6.753  0.653E-02  0.653E-02
  -6.738  0.658E-02  0.658E-02
  -6.723  0.663E-02  0.663E-02
  -6.708  0.669E-02  0.669E-02
  -6.693  0.675E-02  0.675E-02
  -6.678  0.680E-02  0.680E-02
  -6.663  0.686E-02  0.686E-02
  -6.648  0.691E-02  0.691E-02
  -6.633  0.695E-02  0.695E-02
  -6.618  0.699E-02  0.699E-02
  -6.603  0.702E-02  0.702E-02
  -6.588  0.703E-02  0.703E-02
  -6.573  0.703E-02  0.703E-02
  -6.558  0.702E-02  0.702E-02
  -6.543  0.699E-02  0.699E-02
  -6.528  0.694E-02  0.694E-02
  -6.513  0.687E-02  0.687E-02
  -6.498  0.678E-02  0.678E-02
  -6.483  0.667E-02  0.667E-02
  -6.468  0.654E-02  0.654E-02
  -6.453  0.639E-02  0.639E-02
  -6.438  0.623E-02  0.623E-02
  -6.423  0.604E-02  0.604E-02
  -6.408  0.584E-02  0.584E-02
  -6.393  0.563E-02  0.563E-02
  -6.378  0.540E-02  0.540E-02
  -6.363  0.517E-02  0.517E-02
  -6.348  0.492E-02  0.492E-02
  -6.333  0.467E-02  0.467E-02
  -6.318  0.441E-02  0.441E-02
  -6.303  0.415E-02  0.415E-02
  -6.288  0.390E-02  0.390E-02
  -6.273  0.364E-02  0.364E-02
  -6.258  0.339E-02  0.339E-02
  -6.243  0.315E-02  0.315E-02
  -6.228  0.291E-02  0.291E-02
  -6.213  0.269E-02  0.269E-02
  -6.198  0.247E-02  0.247E-02
  -6.183  0.226E-02  0.226E-02
  -6.168  0.207E-02  0.207E-02
  -6.153  0.189E-02  0.189E-02
  -6.138  0.172E-02  0.172E-02
  -6.123  0.156E-02  0.156E-02
  -6.108  0.141E-02  0.141E-02
  -6.093  0.128E-02  0.128E-02
  -6.078  0.116E-02  0.116E-02
  -6.063  0.104E-02  0.104E-02
  -6.048  0.940E-03  0.940E-03
  -6.033  0.847E-03  0.847E-03
  -6.018  0.762E-03  0.762E-03
  -6.003  0.686E-03  0.686E-03
  -5.988  0.617E-03  0.617E-03
  -5.973  0.554E-03  0.554E-03
  -5.958  0.498E-03  0.498E-03
  -5.943  0.447E-03  0.447E-03
  -5.928  0.401E-03  0.401E-03
  -5.913  0.360E-03  0.360E-03
  -5.898  0.323E-03  0.323E-03
  -5.883  0.289E-03  0.289E-03
  -5.868  0.259E-03  0.259E-03
  -5.853  0.232E-03  0.232E-03
  -5.838  0.207E-03  0.207E-03
  -5.823  0.184E-03  0.184E-03
  -5.808  0.164E-03  0.164E-03
  -5.793  0.146E-03  0.146E-03
  -5.778  0.129E-03  0.129E-03
  -5.763  0.114E-03  0.114E-03
  -5.748  0.101E-03  0.101E-03
  -5.733  0.884E-04  0.884E-04
  -5.718  0.775E-04  0.775E-04
  -5.703  0.677E-04  0.677E-04
  -5.688  0.589E-04  0.589E-04
  -5.673  0.511E-04  0.511E-04
  -5.658  0.441E-04  0.441E-04
  -5.643  0.380E-04  0.380E-04
  -5.628  0.326E-04  0.326E-04
  -5.613  0.278E-04  0.278E-04
  -5.598  0.236E-04  0.236E-04
  -5.583  0.200E-04  0.200E-04
  -5.568  0.169E-04  0.169E-04
  -5.553  0.142E-04  0.142E-04
  -5.538  0.118E-04  0.118E-04
  -5.523  0.983E-05  0.983E-05
  -5.508  0.813E-05  0.813E-05
  -5.493  0.669E-05  0.669E-05
  -5.478  0.549E-05  0.549E-05
  -5.463  0.447E-05  0.447E-05
  -5.448  0.363E-05  0.363E-05
  -5.433  0.293E-05  0.293E-05
  -5.418  0.236E-05  0.236E-05
  -5.403  0.188E-05  0.188E-05
  -5.388  0.150E-05  0.150E-05
  -5.373  0.119E-05  0.119E-05
  -5.358  0.934E-06  0.934E-06
  -5.343  0.731E-06  0.731E-06
  -5.328  0.570E-06  0.570E-06
  -5.313  0.442E-06  0.442E-06
  -5.298  0.340E-06  0.340E-06
  -5.283  0.261E-06  0.261E-06
  -5.268  0.199E-06  0.199E-06
  -5.253  0.151E-06  0.151E-06
  -5.238  0.114E-06  0.114E-06
  -5.223  0.857E-07  0.857E-07
  -5.208  0.640E-07  0.640E-07
  -5.193  0.475E-07  0.475E-07
  -5.178  0.351E-07  0.351E-07
  -5.163  0.258E-07  0.258E-07
  -5.148  0.188E-07  0.188E-07
  -5.133  0.137E-07  0.137E-07
  -5.118  0.989E-08  0.989E-08
  -5.103  0.711E-08  0.711E-08
  -5.088  0.508E-08  0.508E-08
  -5.073  0.361E-08  0.361E-08
  -5.058  0.255E-08  0.255E-08
  -5.043  0.179E-08  0.179E-08
  -5.028  0.125E-08  0.125E-08
  -5.013  0.871E-09  0.871E-09
  -4.998  0.602E-09  0.602E-09
  -4.983  0.414E-09  0.414E-09
  -4.968  0.283E-09  0.283E-09
  -4.953  0.192E-09  0.192E-09
  -4.938  0.130E-09  0.130E-09
  -4.923  0.872E-10  0.872E-10
  -4.908  0.583E-10  0.583E-10
  -4.893  0.387E-10  0.387E-10
  -4.878  0.256E-10  0.256E-10
  -4.863  0.168E-10  0.168E-10
  -4.848  0.110E-10  0.110E-10
  -4.833  0.712E-11  0.712E-11
  -4.818  0.460E-11  0.460E-11
  -4.803  0.295E-11  0.295E-11
  -4.788  0.188E-11  0.188E-11
  -4.773  0.120E-11  0.120E-11
  -4.758  0.754E-12  0.754E-12
  -4.743  0.473E-12  0.473E-12
  -4.728  0.295E-12  0.295E-12
  -4.713  0.183E-12  0.183E-12
  -4.698  0.113E-12  0.113E-12
  -4.683  0.690E-13  0.690E-13
  -4.668  0.421E-13  0.421E-13
  -4.653  0.253E-13  0.253E-13
  -4.638  0.152E-13  0.152E-13
  -4.623  0.891E-14  0.891E-14
  -4.608  0.531E-14  0.531E-14
  -4.593  0.297E-14  0.297E-14
  -4.578  0.175E-14  0.175E-14
  -4.563  0.909E-15  0.909E-15
  -4.548  0.532E-15  0.532E-15
  -4.533  0.246E-15  0.246E-15
  -4.518  0.143E-15  0.143E-15
  -4.503  0.559E-16  0.559E-16
  -4.488  0.173E-16  0.173E-16
  -4.473  0.382E-17  0.382E-17
  -4.458  0.747E-34  0.747E-34
  -4.443  0.000E+00  0.000E+00
  -4.428  0.000E+00  0.000E+00
  -4.413  0.000E+00  0.000E+00
  -4.398  0.000E+00  0.000E+00
  -4.383  0.000E+00  0.000E+00
  -4.368  0.000E+00  0.000E+00
  -4.353  0.000E+00  0.000E+00
  -4.338  0.000E+00  0.000E+00
  -4.323  0.000E+00  0.000E+00
  -4.308  0.000E+00  0.000E+00
  -4.293  0.000E+00  0.000E+00
  -4.278  0.000E+00  0.000E+00
  -4.263  0.000E+00  0.000E+00
  -4.248  0.000E+00  0.000E+00
  -4.233  0.000E+00  0.000E+00
  -4.218  0.000E+00  0.000E+00
  -4.203  0.000E+00  0.000E+00
  -4.188  0.000E+00  0.000E+00
  -4.173  0.000E+00  0.000E+00
  -4.158  0.000E+00  0.000E+00
  -4.143  0.000E+00  0.000E+00
  -4.128  0.000E+00  0.000E+00
  -4.113  0.000E+00  0.000E+00
  -4.098  0.000E+00  0.000E+00
  -4.083  0.000E+00  0.000E+00
  -4.068  0.000E+00  0.000E+00
  -4.053  0.000E+00  0.000E+00
  -4.038  0.000E+00  0.000E+00
  -4.023  0.000E+00  0.000E+00
  -4.008  0.000E+00  0.000E+00
  -3.993  0.000E+00  0.000E+00
  -3.978  0.000E+00  0.000E+00
  -3.963  0.000E+00  0.000E+00
  -3.948  0.000E+00  0.000E+00
  -3.933  0.000E+00  0.000E+00
  -3.918  0.000E+00  0.000E+00
  -3.903  0.000E+00  0.000E+00
  -3.888  0.000E+00  0.000E+00
  -3.873  0.000E+00  0.000E+00
  -3.858  0.000E+00  0.000E+00
  -3.843  0.000E+00  0.000E+00
  -3.828  0.000E+00  0.000E+00
  -3.813  0.000E+00  0.000E+00
  -3.798  0.000E+00  0.000E+00
  -3.783  0.000E+00  0.000E+00
  -3.768  0.000E+00  0.000E+00
  -3.753  0.000E+00  0.000E+00
  -3.738  0.000E+00  0.000E+00
  -3.723  0.000E+00  0.000E+00
  -3.708  0.000E+00  0.000E+00
  -3.693  0.000E+00  0.000E+00
  -3.678  0.000E+00  0.000E+00
  -3.663  0.000E+00  0.000E+00
  -3.648  0.000E+00  0.000E+00
  -3.633  0.000E+00  0.000E+00
  -3.618  0.000E+00  0.000E+00
  -3.603  0.000E+00  0.000E+00
  -3.588  0.000E+00  0.000E+00
  -3.573  0.000E+00  0.000E+00
  -3.558  0.000E+00  0.000E+00
  -3.543  0.000E+00  0.000E+00
  -3.528  0.000E+00  0.000E+00
  -3.513  0.000E+00  0.000E+00
  -3.498  0.000E+00  0.000E+00
  -3.483  0.000E+00  0.000E+00
  -3.468  0.000E+00  0.000E+00
  -3.453  0.000E+00  0.000E+00
  -3.438  0.000E+00  0.000E+00
  -3.423  0.000E+00  0.000E+00
  -3.408  0.000E+00  0.000E+00
  -3.393  0.000E+00  0.000E+00
  -3.378  0.000E+00  0.000E+00
  -3.363  0.000E+00  0.000E+00
  -3.348  0.000E+00  0.000E+00
  -3.333  0.000E+00  0.000E+00
  -3.318  0.000E+00  0.000E+00
  -3.303  0.000E+00  0.000E+00
  -3.288  0.000E+00  0.000E+00
  -3.273  0.000E+00  0.000E+00
  -3.258  0.000E+00  0.000E+00
  -3.243  0.000E+00  0.000E+00
  -3.228  0.000E+00  0.000E+00
  -3.213  0.000E+00  0.000E+00
  -3.198  0.000E+00  0.000E+00
  -3.183  0.000E+00  0.000E+00
  -3.168  0.000E+00  0.000E+00
  -3.153  0.000E+00  0.000E+00
  -3.138  0.000E+00  0.000E+00
  -3.123  0.000E+00  0.000E+00
  -3.108  0.000E+00  0.000E+00
  -3.093  0.000E+00  0.000E+00
  -3.078  0.000E+00  0.000E+00
  -3.063  0.000E+00  0.000E+00
  -3.048  0.000E+00  0.000E+00
  -3.033  0.000E+00  0.000E+00
  -3.018  0.000E+00  0.000E+00
  -3.003  0.000E+00  0.000E+00
  -2.988  0.000E+00  0.000E+00
  -2.973  0.000E+00  0.000E+00
  -2.958  0.000E+00  0.000E+00
  -2.943  0.000E+00  0.000E+00
  -2.928  0.000E+00  0.000E+00
  -2.913  0.000E+00  0.000E+00
  -2.898  0.000E+00  0.000E+00
  -2.883  0.000E+00  0.000E+00
  -2.868  0.000E+00  0.000E+00
  -2.853  0.000E+00  0.000E+00
  -2.838  0.000E+00  0.000E+00
  -2.823  0.000E+00  0.000E+00
  -2.808  0.000E+00  0.000E+00
  -2.793  0.000E+00  0.000E+00
  -2.778  0.000E+00  0.000E+00
  -2.763  0.000E+00  0.000E+00
  -2.748  0.000E+00  0.000E+00
  -2.733  0.000E+00  0.000E+00
  -2.718  0.000E+00  0.000E+00
  -2.703  0.000E+00  0.000E+00
  -2.688  0.000E+00  0.000E+00
  -2.673  0.000E+00  0.000E+00
  -2.658  0.000E+00  0.000E+00
  -2.643  0.000E+00  0.000E+00
  -2.628  0.000E+00  0.000E+00
  -2.613  0.000E+00  0.000E+00
  -2.598  0.000E+00  0.000E+00
  -2.583  0.000E+00  0.000E+00
  -2.568  0.000E+00  0.000E+00
  -2.553  0.000E+00  0.000E+00
  -2.538  0.000E+00  0.000E+00
  -2.523  0.000E+00  0.000E+00
  -2.508  0.000E+00  0.000E+00
  -2.493  0.000E+00  0.000E+00
  -2.478  0.000E+00  0.000E+00
  -2.463  0.000E+00  0.000E+00
  -2.448  0.000E+00  0.000E+00
  -2.433  0.000E+00  0.000E+00
  -2.418  0.000E+00  0.000E+00
  -2.403  0.000E+00  0.000E+00
  -2.388  0.000E+00  0.000E+00
  -2.373  0.000E+00  0.000E+00
  -2.358  0.000E+00  0.000E+00
  -2.343  0.000E+00  0.000E+00
  -2.328  0.000E+00  0.000E+00
  -2.313  0.000E+00  0.000E+00
  -2.298  0.000E+00  0.000E+00
  -2.283  0.000E+00  0.000E+00
  -2.268  0.000E+00  0.000E+00
  -2.253  0.000E+00  0.000E+00
  -2.238  0.000E+00  0.000E+00
  -2.223  0.000E+00  0.000E+00
  -2.208  0.000E+00  0.000E+00
  -2.193  0.000E+00  0.000E+00
  -2.178  0.000E+00  0.000E+00
  -2.163  0.000E+00  0.000E+00
  -2.148  0.000E+00  0.000E+00
  -2.133  0.000E+00  0.000E+00
  -2.118  0.000E+00  0.000E+00
  -2.103  0.000E+00  0.000E+00
  -2.088  0.000E+00  0.000E+00
  -2.073  0.000E+00  0.000E+00
  -2.058  0.000E+00  0.000E+00
  -2.043  0.000E+00  0.000E+00
  -2.028  0.000E+00  0.000E+00
  -2.013  0.000E+00  0.000E+00
  -1.998  0.000E+00  0.000E+00
  -1.983  0.000E+00  0.000E+00
  -1.968  0.000E+00  0.000E+00
  -1.953  0.000E+00  0.000E+00
  -1.938  0.000E+00  0.000E+00
  -1.923  0.000E+00  0.000E+00
  -1.908  0.000E+00  0.000E+00
  -1.893  0.000E+00  0.000E+00
  -1.878  0.000E+00  0.000E+00
  -1.863  0.000E+00  0.000E+00
  -1.848  0.000E+00  0.000E+00
  -1.833  0.000E+00  0.000E+00
  -1.818  0.000E+00  0.000E+00
  -1.803  0.000E+00  0.000E+00
  -1.788  0.000E+00  0.000E+00
  -1.773  0.000E+00  0.000E+00
  -1.758  0.000E+00  0.000E+00
  -1.743  0.000E+00  0.000E+00
  -1.728  0.000E+00  0.000E+00
  -1.713  0.000E+00  0.000E+00
  -1.698  0.000E+00  0.000E+00
  -1.683  0.000E+00  0.000E+00
  -1.668  0.000E+00  0.000E+00
  -1.653  0.000E+00  0.000E+00
  -1.638  0.000E+00  0.000E+00
  -1.623  0.000E+00  0.000E+00
  -1.608  0.000E+00  0.000E+00
  -1.593  0.000E+00  0.000E+00
  -1.578  0.000E+00  0.000E+00
  -1.563  0.000E+00  0.000E+00
  -1.548  0.000E+00  0.000E+00
  -1.533  0.000E+00  0.000E+00
  -1.518  0.000E+00  0.000E+00
  -1.503  0.000E+00  0.000E+00
  -1.488  0.307E-12  0.307E-12
  -1.473  0.893E-12  0.893E-12
  -1.458  0.165E-11  0.165E-11
  -1.443  0.312E-11  0.312E-11
  -1.428  0.544E-11  0.544E-11
  -1.413  0.943E-11  0.943E-11
  -1.398  0.161E-10  0.161E-10
  -1.383  0.271E-10  0.271E-10
  -1.368  0.455E-10  0.455E-10
  -1.353  0.757E-10  0.757E-10
  -1.338  0.125E-09  0.125E-09
  -1.323  0.206E-09  0.206E-09
  -1.308  0.336E-09  0.336E-09
  -1.293  0.546E-09  0.546E-09
  -1.278  0.881E-09  0.881E-09
  -1.263  0.141E-08  0.141E-08
  -1.248  0.225E-08  0.225E-08
  -1.233  0.357E-08  0.357E-08
  -1.218  0.563E-08  0.563E-08
  -1.203  0.881E-08  0.881E-08
  -1.188  0.137E-07  0.137E-07
  -1.173  0.212E-07  0.212E-07
  -1.158  0.326E-07  0.326E-07
  -1.143  0.499E-07  0.499E-07
  -1.128  0.758E-07  0.758E-07
  -1.113  0.115E-06  0.115E-06
  -1.098  0.172E-06  0.172E-06
  -1.083  0.257E-06  0.257E-06
  -1.068  0.381E-06  0.381E-06
  -1.053  0.562E-06  0.562E-06
  -1.038  0.824E-06  0.824E-06
  -1.023  0.120E-05  0.120E-05
  -1.008  0.174E-05  0.174E-05
  -0.993  0.251E-05  0.251E-05
