# E (eV)   ldos(E)   pdos(E)   
 -10.638  0.507E-04  0.507E-04
 -10.623  0.708E-04  0.708E-04
 -10.608  0.983E-04  0.983E-04
 -10.593  0.136E-03  0.136E-03
 -10.578  0.186E-03  0.186E-03
 -10.563  0.254E-03  0.254E-03
 -10.548  0.344E-03  0.344E-03
 -10.533  0.464E-03  0.464E-03
 -10.518  0.621E-03  0.621E-03
 -10.503  0.827E-03  0.827E-03
 -10.488  0.109E-02  0.109E-02
 -10.473  0.144E-02  0.144E-02
 -10.458  0.188E-02  0.188E-02
 -10.443  0.245E-02  0.245E-02
 -10.428  0.316E-02  0.316E-02
 -10.413  0.407E-02  0.407E-02
 -10.398  0.519E-02  0.519E-02
 -10.383  0.659E-02  0.659E-02
 -10.368  0.832E-02  0.832E-02
 -10.353  0.104E-01  0.104E-01
 -10.338  0.130E-01  0.130E-01
 -10.323  0.161E-01  0.161E-01
 -10.308  0.199E-01  0.199E-01
 -10.293  0.244E-01  0.244E-01
 -10.278  0.297E-01  0.297E-01
 -10.263  0.360E-01  0.360E-01
 -10.248  0.434E-01  0.434E-01
 -10.233  0.519E-01  0.519E-01
 -10.218  0.618E-01  0.618E-01
 -10.203  0.731E-01  0.731E-01
 -10.188  0.861E-01  0.861E-01
 -10.173  0.101E+00  0.101E+00
 -10.158  0.117E+00  0.117E+00
 -10.143  0.136E+00  0.136E+00
 -10.128  0.156E+00  0.156E+00
 -10.113  0.179E+00  0.179E+00
 -10.098  0.203E+00  0.203E+00
 -10.083  0.230E+00  0.230E+00
 -10.068  0.259E+00  0.259E+00
 -10.053  0.290E+00  0.290E+00
 -10.038  0.324E+00  0.324E+00
 -10.023  0.359E+00  0.359E+00
 -10.008  0.396E+00  0.396E+00
  -9.993  0.435E+00  0.435E+00
  -9.978  0.475E+00  0.475E+00
  -9.963  0.516E+00  0.516E+00
  -9.948  0.559E+00  0.559E+00
  -9.933  0.603E+00  0.603E+00
  -9.918  0.647E+00  0.647E+00
  -9.903  0.692E+00  0.692E+00
  -9.888  0.737E+00  0.737E+00
  -9.873  0.782E+00  0.782E+00
  -9.858  0.827E+00  0.827E+00
  -9.843  0.872E+00  0.872E+00
  -9.828  0.917E+00  0.917E+00
  -9.813  0.962E+00  0.962E+00
  -9.798  0.101E+01  0.101E+01
  -9.783  0.105E+01  0.105E+01
  -9.768  0.109E+01  0.109E+01
  -9.753  0.114E+01  0.114E+01
  -9.738  0.118E+01  0.118E+01
  -9.723  0.122E+01  0.122E+01
  -9.708  0.126E+01  0.126E+01
  -9.693  0.131E+01  0.131E+01
  -9.678  0.135E+01  0.135E+01
  -9.663  0.139E+01  0.139E+01
  -9.648  0.143E+01  0.143E+01
  -9.633  0.148E+01  0.148E+01
  -9.618  0.152E+01  0.152E+01
  -9.603  0.156E+01  0.156E+01
  -9.588  0.160E+01  0.160E+01
  -9.573  0.163E+01  0.163E+01
  -9.558  0.167E+01  0.167E+01
  -9.543  0.170E+01  0.170E+01
  -9.528  0.173E+01  0.173E+01
  -9.513  0.176E+01  0.176E+01
  -9.498  0.178E+01  0.178E+01
  -9.483  0.180E+01  0.180E+01
  -9.468  0.181E+01  0.181E+01
  -9.453  0.182E+01  0.182E+01
  -9.438  0.183E+01  0.183E+01
  -9.423  0.182E+01  0.182E+01
  -9.408  0.181E+01  0.181E+01
  -9.393  0.180E+01  0.180E+01
  -9.378  0.178E+01  0.178E+01
  -9.363  0.175E+01  0.175E+01
  -9.348  0.171E+01  0.171E+01
  -9.333  0.167E+01  0.167E+01
  -9.318  0.162E+01  0.162E+01
  -9.303  0.157E+01  0.157E+01
  -9.288  0.152E+01  0.152E+01
  -9.273  0.146E+01  0.146E+01
  -9.258  0.139E+01  0.139E+01
  -9.243  0.132E+01  0.132E+01
  -9.228  0.125E+01  0.125E+01
  -9.213  0.118E+01  0.118E+01
  -9.198  0.111E+01  0.111E+01
  -9.183  0.104E+01  0.104E+01
  -9.168  0.964E+00  0.964E+00
  -9.153  0.892E+00  0.892E+00
  -9.138  0.821E+00  0.821E+00
  -9.123  0.753E+00  0.753E+00
  -9.108  0.687E+00  0.687E+00
  -9.093  0.624E+00  0.624E+00
  -9.078  0.563E+00  0.563E+00
  -9.063  0.506E+00  0.506E+00
  -9.048  0.453E+00  0.453E+00
  -9.033  0.403E+00  0.403E+00
  -9.018  0.357E+00  0.357E+00
  -9.003  0.314E+00  0.314E+00
  -8.988  0.276E+00  0.276E+00
  -8.973  0.240E+00  0.240E+00
  -8.958  0.208E+00  0.208E+00
  -8.943  0.180E+00  0.180E+00
  -8.928  0.154E+00  0.154E+00
  -8.913  0.132E+00  0.132E+00
  -8.898  0.112E+00  0.112E+00
  -8.883  0.945E-01  0.945E-01
  -8.868  0.794E-01  0.794E-01
  -8.853  0.664E-01  0.664E-01
  -8.838  0.551E-01  0.551E-01
  -8.823  0.456E-01  0.456E-01
  -8.808  0.375E-01  0.375E-01
  -8.793  0.306E-01  0.306E-01
  -8.778  0.249E-01  0.249E-01
  -8.763  0.201E-01  0.201E-01
  -8.748  0.162E-01  0.162E-01
  -8.733  0.129E-01  0.129E-01
  -8.718  0.103E-01  0.103E-01
  -8.703  0.812E-02  0.812E-02
  -8.688  0.639E-02  0.639E-02
  -8.673  0.499E-02  0.499E-02
  -8.658  0.388E-02  0.388E-02
  -8.643  0.299E-02  0.299E-02
  -8.628  0.230E-02  0.230E-02
  -8.613  0.176E-02  0.176E-02
  -8.598  0.133E-02  0.133E-02
  -8.583  0.101E-02  0.101E-02
  -8.568  0.756E-03  0.756E-03
  -8.553  0.564E-03  0.564E-03
  -8.538  0.418E-03  0.418E-03
  -8.523  0.308E-03  0.308E-03
  -8.508  0.226E-03  0.226E-03
  -8.493  0.165E-03  0.165E-03
  -8.478  0.119E-03  0.119E-03
  -8.463  0.860E-04  0.860E-04
  -8.448  0.616E-04  0.616E-04
  -8.433  0.439E-04  0.439E-04
  -8.418  0.310E-04  0.310E-04
  -8.403  0.218E-04  0.218E-04
  -8.388  0.153E-04  0.153E-04
  -8.373  0.106E-04  0.106E-04
  -8.358  0.734E-05  0.734E-05
  -8.343  0.504E-05  0.504E-05
  -8.328  0.345E-05  0.345E-05
  -8.313  0.234E-05  0.234E-05
  -8.298  0.158E-05  0.158E-05
  -8.283  0.107E-05  0.107E-05
  -8.268  0.717E-06  0.717E-06
  -8.253  0.485E-06  0.485E-06
  -8.238  0.333E-06  0.333E-06
  -8.223  0.237E-06  0.237E-06
  -8.208  0.182E-06  0.182E-06
  -8.193  0.158E-06  0.158E-06
  -8.178  0.158E-06  0.158E-06
  -8.163  0.180E-06  0.180E-06
  -8.148  0.226E-06  0.226E-06
  -8.133  0.298E-06  0.298E-06
  -8.118  0.403E-06  0.403E-06
  -8.103  0.550E-06  0.550E-06
  -8.088  0.752E-06  0.752E-06
  -8.073  0.102E-05  0.102E-05
  -8.058  0.139E-05  0.139E-05
  -8.043  0.188E-05  0.188E-05
  -8.028  0.253E-05  0.253E-05
  -8.013  0.338E-05  0.338E-05
  -7.998  0.451E-05  0.451E-05
  -7.983  0.597E-05  0.597E-05
  -7.968  0.786E-05  0.786E-05
  -7.953  0.103E-04  0.103E-04
  -7.938  0.134E-04  0.134E-04
  -7.923  0.174E-04  0.174E-04
  -7.908  0.225E-04  0.225E-04
  -7.893  0.289E-04  0.289E-04
  -7.878  0.369E-04  0.369E-04
  -7.863  0.469E-04  0.469E-04
  -7.848  0.593E-04  0.593E-04
  -7.833  0.746E-04  0.746E-04
  -7.818  0.934E-04  0.934E-04
  -7.803  0.116E-03  0.116E-03
  -7.788  0.144E-03  0.144E-03
  -7.773  0.178E-03  0.178E-03
  -7.758  0.218E-03  0.218E-03
  -7.743  0.267E-03  0.267E-03
  -7.728  0.324E-03  0.324E-03
  -7.713  0.392E-03  0.392E-03
  -7.698  0.471E-03  0.471E-03
  -7.683  0.564E-03  0.564E-03
  -7.668  0.673E-03  0.673E-03
  -7.653  0.798E-03  0.798E-03
  -7.638  0.942E-03  0.942E-03
  -7.623  0.111E-02  0.111E-02
  -7.608  0.129E-02  0.129E-02
  -7.593  0.150E-02  0.150E-02
  -7.578  0.174E-02  0.174E-02
  -7.563  0.201E-02  0.201E-02
  -7.548  0.231E-02  0.231E-02
  -7.533  0.263E-02  0.263E-02
  -7.518  0.299E-02  0.299E-02
  -7.503  0.339E-02  0.339E-02
  -7.488  0.382E-02  0.382E-02
  -7.473  0.429E-02  0.429E-02
  -7.458  0.479E-02  0.479E-02
  -7.443  0.534E-02  0.534E-02
  -7.428  0.591E-02  0.591E-02
  -7.413  0.653E-02  0.653E-02
  -7.398  0.718E-02  0.718E-02
  -7.383  0.786E-02  0.786E-02
  -7.368  0.858E-02  0.858E-02
  -7.353  0.932E-02  0.932E-02
  -7.338  0.101E-01  0.101E-01
  -7.323  0.109E-01  0.109E-01
  -7.308  0.117E-01  0.117E-01
  -7.293  0.126E-01  0.126E-01
  -7.278  0.135E-01  0.135E-01
  -7.263  0.144E-01  0.144E-01
  -7.248  0.153E-01  0.153E-01
  -7.233  0.162E-01  0.162E-01
  -7.218  0.171E-01  0.171E-01
  -7.203  0.181E-01  0.181E-01
  -7.188  0.191E-01  0.191E-01
  -7.173  0.201E-01  0.201E-01
  -7.158  0.211E-01  0.211E-01
  -7.143  0.222E-01  0.222E-01
  -7.128  0.232E-01  0.232E-01
  -7.113  0.243E-01  0.243E-01
  -7.098  0.255E-01  0.255E-01
  -7.083  0.267E-01  0.267E-01
  -7.068  0.280E-01  0.280E-01
  -7.053  0.293E-01  0.293E-01
  -7.038  0.308E-01  0.308E-01
  -7.023  0.323E-01  0.323E-01
  -7.008  0.340E-01  0.340E-01
  -6.993  0.358E-01  0.358E-01
  -6.978  0.379E-01  0.379E-01
  -6.963  0.401E-01  0.401E-01
  -6.948  0.425E-01  0.425E-01
  -6.933  0.453E-01  0.453E-01
  -6.918  0.483E-01  0.483E-01
  -6.903  0.517E-01  0.517E-01
  -6.888  0.554E-01  0.554E-01
  -6.873  0.596E-01  0.596E-01
  -6.858  0.643E-01  0.643E-01
  -6.843  0.695E-01  0.695E-01
  -6.828  0.752E-01  0.752E-01
  -6.813  0.815E-01  0.815E-01
  -6.798  0.884E-01  0.884E-01
  -6.783  0.960E-01  0.960E-01
  -6.768  0.104E+00  0.104E+00
  -6.753  0.113E+00  0.113E+00
  -6.738  0.123E+00  0.123E+00
  -6.723  0.133E+00  0.133E+00
  -6.708  0.144E+00  0.144E+00
  -6.693  0.155E+00  0.155E+00
  -6.678  0.168E+00  0.168E+00
  -6.663  0.180E+00  0.180E+00
  -6.648  0.193E+00  0.193E+00
  -6.633  0.207E+00  0.207E+00
  -6.618  0.221E+00  0.221E+00
  -6.603  0.235E+00  0.235E+00
  -6.588  0.249E+00  0.249E+00
  -6.573  0.262E+00  0.262E+00
  -6.558  0.276E+00  0.276E+00
  -6.543  0.289E+00  0.289E+00
  -6.528  0.302E+00  0.302E+00
  -6.513  0.314E+00  0.314E+00
  -6.498  0.325E+00  0.325E+00
  -6.483  0.336E+00  0.336E+00
  -6.468  0.345E+00  0.345E+00
  -6.453  0.353E+00  0.353E+00
  -6.438  0.360E+00  0.360E+00
  -6.423  0.366E+00  0.366E+00
  -6.408  0.371E+00  0.371E+00
  -6.393  0.374E+00  0.374E+00
  -6.378  0.377E+00  0.377E+00
  -6.363  0.378E+00  0.378E+00
  -6.348  0.378E+00  0.378E+00
  -6.333  0.377E+00  0.377E+00
  -6.318  0.375E+00  0.375E+00
  -6.303  0.373E+00  0.373E+00
  -6.288  0.370E+00  0.370E+00
  -6.273  0.366E+00  0.366E+00
  -6.258  0.363E+00  0.363E+00
  -6.243  0.359E+00  0.359E+00
  -6.228  0.356E+00  0.356E+00
  -6.213  0.353E+00  0.353E+00
  -6.198  0.350E+00  0.350E+00
  -6.183  0.348E+00  0.348E+00
  -6.168  0.347E+00  0.347E+00
  -6.153  0.347E+00  0.347E+00
  -6.138  0.347E+00  0.347E+00
  -6.123  0.349E+00  0.349E+00
  -6.108  0.351E+00  0.351E+00
  -6.093  0.354E+00  0.354E+00
  -6.078  0.358E+00  0.358E+00
  -6.063  0.363E+00  0.363E+00
  -6.048  0.368E+00  0.368E+00
  -6.033  0.374E+00  0.374E+00
  -6.018  0.380E+00  0.380E+00
  -6.003  0.387E+00  0.387E+00
  -5.988  0.393E+00  0.393E+00
  -5.973  0.399E+00  0.399E+00
  -5.958  0.404E+00  0.404E+00
  -5.943  0.409E+00  0.409E+00
  -5.928  0.412E+00  0.412E+00
  -5.913  0.415E+00  0.415E+00
  -5.898  0.416E+00  0.416E+00
  -5.883  0.416E+00  0.416E+00
  -5.868  0.414E+00  0.414E+00
  -5.853  0.411E+00  0.411E+00
  -5.838  0.406E+00  0.406E+00
  -5.823  0.399E+00  0.399E+00
  -5.808  0.390E+00  0.390E+00
  -5.793  0.380E+00  0.380E+00
  -5.778  0.368E+00  0.368E+00
  -5.763  0.355E+00  0.355E+00
  -5.748  0.341E+00  0.341E+00
  -5.733  0.325E+00  0.325E+00
  -5.718  0.309E+00  0.309E+00
  -5.703  0.292E+00  0.292E+00
  -5.688  0.274E+00  0.274E+00
  -5.673  0.256E+00  0.256E+00
  -5.658  0.238E+00  0.238E+00
  -5.643  0.220E+00  0.220E+00
  -5.628  0.202E+00  0.202E+00
  -5.613  0.184E+00  0.184E+00
  -5.598  0.167E+00  0.167E+00
  -5.583  0.151E+00  0.151E+00
  -5.568  0.136E+00  0.136E+00
  -5.553  0.121E+00  0.121E+00
  -5.538  0.108E+00  0.108E+00
  -5.523  0.950E-01  0.950E-01
  -5.508  0.833E-01  0.833E-01
  -5.493  0.727E-01  0.727E-01
  -5.478  0.630E-01  0.630E-01
  -5.463  0.543E-01  0.543E-01
  -5.448  0.466E-01  0.466E-01
  -5.433  0.397E-01  0.397E-01
  -5.418  0.336E-01  0.336E-01
  -5.403  0.283E-01  0.283E-01
  -5.388  0.237E-01  0.237E-01
  -5.373  0.197E-01  0.197E-01
  -5.358  0.163E-01  0.163E-01
  -5.343  0.134E-01  0.134E-01
  -5.328  0.110E-01  0.110E-01
  -5.313  0.891E-02  0.891E-02
  -5.298  0.720E-02  0.720E-02
  -5.283  0.578E-02  0.578E-02
  -5.268  0.461E-02  0.461E-02
  -5.253  0.366E-02  0.366E-02
  -5.238  0.289E-02  0.289E-02
  -5.223  0.226E-02  0.226E-02
  -5.208  0.176E-02  0.176E-02
  -5.193  0.137E-02  0.137E-02
  -5.178  0.105E-02  0.105E-02
  -5.163  0.805E-03  0.805E-03
  -5.148  0.613E-03  0.613E-03
  -5.133  0.463E-03  0.463E-03
  -5.118  0.348E-03  0.348E-03
  -5.103  0.260E-03  0.260E-03
  -5.088  0.193E-03  0.193E-03
  -5.073  0.143E-03  0.143E-03
  -5.058  0.105E-03  0.105E-03
  -5.043  0.764E-04  0.764E-04
  -5.028  0.554E-04  0.554E-04
  -5.013  0.399E-04  0.399E-04
  -4.998  0.286E-04  0.286E-04
  -4.983  0.204E-04  0.204E-04
  -4.968  0.144E-04  0.144E-04
  -4.953  0.101E-04  0.101E-04
  -4.938  0.710E-05  0.710E-05
  -4.923  0.493E-05  0.493E-05
  -4.908  0.341E-05  0.341E-05
  -4.893  0.234E-05  0.234E-05
  -4.878  0.160E-05  0.160E-05
  -4.863  0.108E-05  0.108E-05
  -4.848  0.732E-06  0.732E-06
  -4.833  0.490E-06  0.490E-06
  -4.818  0.327E-06  0.327E-06
  -4.803  0.217E-06  0.217E-06
  -4.788  0.143E-06  0.143E-06
  -4.773  0.933E-07  0.933E-07
  -4.758  0.607E-07  0.607E-07
  -4.743  0.392E-07  0.392E-07
  -4.728  0.252E-07  0.252E-07
  -4.713  0.161E-07  0.161E-07
  -4.698  0.102E-07  0.102E-07
  -4.683  0.645E-08  0.645E-08
  -4.668  0.405E-08  0.405E-08
  -4.653  0.252E-08  0.252E-08
  -4.638  0.156E-08  0.156E-08
  -4.623  0.964E-09  0.964E-09
  -4.608  0.590E-09  0.590E-09
  -4.593  0.359E-09  0.359E-09
  -4.578  0.217E-09  0.217E-09
  -4.563  0.130E-09  0.130E-09
  -4.548  0.779E-10  0.779E-10
  -4.533  0.462E-10  0.462E-10
  -4.518  0.272E-10  0.272E-10
  -4.503  0.159E-10  0.159E-10
  -4.488  0.919E-11  0.919E-11
  -4.473  0.523E-11  0.523E-11
  -4.458  0.258E-11  0.258E-11
  -4.443  0.000E+00  0.000E+00
  -4.428  0.000E+00  0.000E+00
  -4.413  0.000E+00  0.000E+00
  -4.398  0.000E+00  0.000E+00
  -4.383  0.000E+00  0.000E+00
  -4.368  0.000E+00  0.000E+00
  -4.353  0.000E+00  0.000E+00
  -4.338  0.000E+00  0.000E+00
  -4.323  0.000E+00  0.000E+00
  -4.308  0.000E+00  0.000E+00
  -4.293  0.000E+00  0.000E+00
  -4.278  0.000E+00  0.000E+00
  -4.263  0.000E+00  0.000E+00
  -4.248  0.000E+00  0.000E+00
  -4.233  0.000E+00  0.000E+00
  -4.218  0.000E+00  0.000E+00
  -4.203  0.000E+00  0.000E+00
  -4.188  0.000E+00  0.000E+00
  -4.173  0.000E+00  0.000E+00
  -4.158  0.000E+00  0.000E+00
  -4.143  0.000E+00  0.000E+00
  -4.128  0.000E+00  0.000E+00
  -4.113  0.000E+00  0.000E+00
  -4.098  0.000E+00  0.000E+00
  -4.083  0.000E+00  0.000E+00
  -4.068  0.000E+00  0.000E+00
  -4.053  0.000E+00  0.000E+00
  -4.038  0.000E+00  0.000E+00
  -4.023  0.000E+00  0.000E+00
  -4.008  0.000E+00  0.000E+00
  -3.993  0.000E+00  0.000E+00
  -3.978  0.000E+00  0.000E+00
  -3.963  0.000E+00  0.000E+00
  -3.948  0.000E+00  0.000E+00
  -3.933  0.000E+00  0.000E+00
  -3.918  0.000E+00  0.000E+00
  -3.903  0.000E+00  0.000E+00
  -3.888  0.000E+00  0.000E+00
  -3.873  0.000E+00  0.000E+00
  -3.858  0.000E+00  0.000E+00
  -3.843  0.000E+00  0.000E+00
  -3.828  0.000E+00  0.000E+00
  -3.813  0.000E+00  0.000E+00
  -3.798  0.000E+00  0.000E+00
  -3.783  0.000E+00  0.000E+00
  -3.768  0.000E+00  0.000E+00
  -3.753  0.000E+00  0.000E+00
  -3.738  0.000E+00  0.000E+00
  -3.723  0.000E+00  0.000E+00
  -3.708  0.000E+00  0.000E+00
  -3.693  0.000E+00  0.000E+00
  -3.678  0.000E+00  0.000E+00
  -3.663  0.000E+00  0.000E+00
  -3.648  0.000E+00  0.000E+00
  -3.633  0.000E+00  0.000E+00
  -3.618  0.000E+00  0.000E+00
  -3.603  0.000E+00  0.000E+00
  -3.588  0.000E+00  0.000E+00
  -3.573  0.000E+00  0.000E+00
  -3.558  0.000E+00  0.000E+00
  -3.543  0.000E+00  0.000E+00
  -3.528  0.000E+00  0.000E+00
  -3.513  0.000E+00  0.000E+00
  -3.498  0.000E+00  0.000E+00
  -3.483  0.000E+00  0.000E+00
  -3.468  0.000E+00  0.000E+00
  -3.453  0.000E+00  0.000E+00
  -3.438  0.000E+00  0.000E+00
  -3.423  0.000E+00  0.000E+00
  -3.408  0.000E+00  0.000E+00
  -3.393  0.000E+00  0.000E+00
  -3.378  0.000E+00  0.000E+00
  -3.363  0.000E+00  0.000E+00
  -3.348  0.000E+00  0.000E+00
  -3.333  0.000E+00  0.000E+00
  -3.318  0.000E+00  0.000E+00
  -3.303  0.000E+00  0.000E+00
  -3.288  0.000E+00  0.000E+00
  -3.273  0.000E+00  0.000E+00
  -3.258  0.000E+00  0.000E+00
  -3.243  0.000E+00  0.000E+00
  -3.228  0.000E+00  0.000E+00
  -3.213  0.000E+00  0.000E+00
  -3.198  0.000E+00  0.000E+00
  -3.183  0.000E+00  0.000E+00
  -3.168  0.000E+00  0.000E+00
  -3.153  0.000E+00  0.000E+00
  -3.138  0.000E+00  0.000E+00
  -3.123  0.000E+00  0.000E+00
  -3.108  0.000E+00  0.000E+00
  -3.093  0.000E+00  0.000E+00
  -3.078  0.000E+00  0.000E+00
  -3.063  0.000E+00  0.000E+00
  -3.048  0.000E+00  0.000E+00
  -3.033  0.000E+00  0.000E+00
  -3.018  0.000E+00  0.000E+00
  -3.003  0.000E+00  0.000E+00
  -2.988  0.000E+00  0.000E+00
  -2.973  0.000E+00  0.000E+00
  -2.958  0.000E+00  0.000E+00
  -2.943  0.000E+00  0.000E+00
  -2.928  0.000E+00  0.000E+00
  -2.913  0.000E+00  0.000E+00
  -2.898  0.000E+00  0.000E+00
  -2.883  0.000E+00  0.000E+00
  -2.868  0.000E+00  0.000E+00
  -2.853  0.000E+00  0.000E+00
  -2.838  0.000E+00  0.000E+00
  -2.823  0.000E+00  0.000E+00
  -2.808  0.000E+00  0.000E+00
  -2.793  0.000E+00  0.000E+00
  -2.778  0.000E+00  0.000E+00
  -2.763  0.000E+00  0.000E+00
  -2.748  0.000E+00  0.000E+00
  -2.733  0.000E+00  0.000E+00
  -2.718  0.000E+00  0.000E+00
  -2.703  0.000E+00  0.000E+00
  -2.688  0.000E+00  0.000E+00
  -2.673  0.000E+00  0.000E+00
  -2.658  0.000E+00  0.000E+00
  -2.643  0.000E+00  0.000E+00
  -2.628  0.000E+00  0.000E+00
  -2.613  0.000E+00  0.000E+00
  -2.598  0.000E+00  0.000E+00
  -2.583  0.000E+00  0.000E+00
  -2.568  0.000E+00  0.000E+00
  -2.553  0.000E+00  0.000E+00
  -2.538  0.000E+00  0.000E+00
  -2.523  0.000E+00  0.000E+00
  -2.508  0.000E+00  0.000E+00
  -2.493  0.000E+00  0.000E+00
  -2.478  0.000E+00  0.000E+00
  -2.463  0.000E+00  0.000E+00
  -2.448  0.000E+00  0.000E+00
  -2.433  0.000E+00  0.000E+00
  -2.418  0.000E+00  0.000E+00
  -2.403  0.000E+00  0.000E+00
  -2.388  0.000E+00  0.000E+00
  -2.373  0.000E+00  0.000E+00
  -2.358  0.000E+00  0.000E+00
  -2.343  0.000E+00  0.000E+00
  -2.328  0.000E+00  0.000E+00
  -2.313  0.000E+00  0.000E+00
  -2.298  0.000E+00  0.000E+00
  -2.283  0.000E+00  0.000E+00
  -2.268  0.000E+00  0.000E+00
  -2.253  0.000E+00  0.000E+00
  -2.238  0.000E+00  0.000E+00
  -2.223  0.000E+00  0.000E+00
  -2.208  0.000E+00  0.000E+00
  -2.193  0.000E+00  0.000E+00
  -2.178  0.000E+00  0.000E+00
  -2.163  0.000E+00  0.000E+00
  -2.148  0.000E+00  0.000E+00
  -2.133  0.000E+00  0.000E+00
  -2.118  0.000E+00  0.000E+00
  -2.103  0.000E+00  0.000E+00
  -2.088  0.000E+00  0.000E+00
  -2.073  0.000E+00  0.000E+00
  -2.058  0.000E+00  0.000E+00
  -2.043  0.000E+00  0.000E+00
  -2.028  0.000E+00  0.000E+00
  -2.013  0.000E+00  0.000E+00
  -1.998  0.000E+00  0.000E+00
  -1.983  0.000E+00  0.000E+00
  -1.968  0.000E+00  0.000E+00
  -1.953  0.000E+00  0.000E+00
  -1.938  0.000E+00  0.000E+00
  -1.923  0.000E+00  0.000E+00
  -1.908  0.000E+00  0.000E+00
  -1.893  0.000E+00  0.000E+00
  -1.878  0.000E+00  0.000E+00
  -1.863  0.000E+00  0.000E+00
  -1.848  0.000E+00  0.000E+00
  -1.833  0.000E+00  0.000E+00
  -1.818  0.000E+00  0.000E+00
  -1.803  0.000E+00  0.000E+00
  -1.788  0.000E+00  0.000E+00
  -1.773  0.000E+00  0.000E+00
  -1.758  0.000E+00  0.000E+00
  -1.743  0.000E+00  0.000E+00
  -1.728  0.000E+00  0.000E+00
  -1.713  0.000E+00  0.000E+00
  -1.698  0.000E+00  0.000E+00
  -1.683  0.000E+00  0.000E+00
  -1.668  0.000E+00  0.000E+00
  -1.653  0.000E+00  0.000E+00
  -1.638  0.000E+00  0.000E+00
  -1.623  0.000E+00  0.000E+00
  -1.608  0.000E+00  0.000E+00
  -1.593  0.000E+00  0.000E+00
  -1.578  0.000E+00  0.000E+00
  -1.563  0.000E+00  0.000E+00
  -1.548  0.000E+00  0.000E+00
  -1.533  0.000E+00  0.000E+00
  -1.518  0.000E+00  0.000E+00
  -1.503  0.000E+00  0.000E+00
  -1.488  0.250E-16  0.250E-16
  -1.473  0.165E-15  0.165E-15
  -1.458  0.286E-15  0.286E-15
  -1.443  0.862E-15  0.862E-15
  -1.428  0.148E-14  0.148E-14
  -1.413  0.304E-14  0.304E-14
  -1.398  0.530E-14  0.530E-14
  -1.383  0.900E-14  0.900E-14
  -1.368  0.161E-13  0.161E-13
  -1.353  0.270E-13  0.270E-13
  -1.338  0.451E-13  0.451E-13
  -1.323  0.762E-13  0.762E-13
  -1.308  0.126E-12  0.126E-12
  -1.293  0.207E-12  0.207E-12
  -1.278  0.337E-12  0.337E-12
  -1.263  0.549E-12  0.549E-12
  -1.248  0.886E-12  0.886E-12
  -1.233  0.142E-11  0.142E-11
  -1.218  0.227E-11  0.227E-11
  -1.203  0.360E-11  0.360E-11
  -1.188  0.567E-11  0.567E-11
  -1.173  0.889E-11  0.889E-11
  -1.158  0.139E-10  0.139E-10
  -1.143  0.215E-10  0.215E-10
  -1.128  0.331E-10  0.331E-10
  -1.113  0.506E-10  0.506E-10
  -1.098  0.771E-10  0.771E-10
  -1.083  0.117E-09  0.117E-09
  -1.068  0.176E-09  0.176E-09
  -1.053  0.263E-09  0.263E-09
  -1.038  0.391E-09  0.391E-09
  -1.023  0.578E-09  0.578E-09
  -1.008  0.850E-09  0.850E-09
  -0.993  0.124E-08  0.124E-08
